       157      0.00    858.27 O(1S)    O+        4  2
Cross section:
Lambda = 0.00 - 130.00 A
   Barfield, W. D., Koontz, G. D., Huebner, W. F. (1972)
   J. Quant. Spectr. Rad. Trans. 12, 1409.
Lambda = 130. - 200.00 A
   Henry, R. J. W. (1970)
   Astrophys. J. 161, 1153.
Lambda = 219.80 - 879.24 A
   TOPbase:  Photoionisation Cross Sections, 
   http://cdsweb.u-strasbg.fr/topbase/xsections.html.
Threshold:
Lambda = 858.27 A
   Moore, C. E. (1970)
   Ionization Potentials and Ionization Limits Derived from the Analyses of Optical Spectra, NSRDS-NBS 34.

      1.00  7.00E-23
      5.00  1.00E-20
     10.00  6.80E-20
     12.00  1.10E-19
     14.00  1.70E-19
     15.00  2.00E-19
     16.00  2.30E-19
     17.00  2.80E-19
     18.00  3.20E-19
     19.00  3.60E-19
     20.00  4.30E-19
     21.00  4.70E-19
     22.00  5.40E-19
     22.50  5.60E-19
     23.50  2.90E-20
     24.00  3.10E-20
     25.00  3.40E-20
     26.00  3.80E-20
     28.00  4.60E-20
     30.00  5.40E-20
     35.00  7.80E-20
     40.00  1.10E-19
     45.00  1.40E-19
     50.00  1.80E-19
     55.00  2.30E-19
     60.00  2.90E-19
     65.00  3.70E-19
     70.00  4.50E-19
     75.00  5.50E-19
     80.00  6.50E-19
     85.00  8.00E-19
     90.00  9.50E-19
     95.00  1.10E-18
    100.00  1.25E-18
    110.00  1.50E-18
    120.00  1.80E-18
    130.00  2.03E-18
    150.00  2.46E-18
    200.00  3.58E-18
    219.80  4.02E-18
    224.20  4.27E-18
    228.70  4.53E-18
    233.40  4.81E-18
    238.10  5.11E-18
    242.90  5.43E-18
    247.80  5.76E-18
    340.30  8.51E-18
    349.80  8.77E-18
    349.90  8.58E-18
    350.00  8.87E-18
    350.30  8.73E-18
    350.80  8.61E-18
    350.90  8.88E-18
    351.60  8.63E-18
    351.80  8.88E-18
    352.90  8.65E-18
    353.20  8.97E-18
    355.20  8.71E-18
    355.60  9.00E-18
    360.00  8.81E-18
    360.80  9.13E-18
    371.80  9.24E-18
    371.90  9.11E-18
    372.00  8.54E-18
    372.10  9.76E-18
    372.30  9.08E-18
    372.40  7.47E-18
    372.50  9.80E-18
    372.90  8.76E-18
    373.00  8.00E-18
    373.10  8.67E-18
    373.20  1.02E-17
    373.50  9.08E-18
    373.90  8.28E-18
    374.00  7.32E-18
    374.10  1.02E-17
    374.20  1.00E-17
    374.40  9.34E-18
    375.50  9.20E-18
    375.70  1.04E-17
    375.80  1.10E-17
    375.90  1.00E-17
    377.30  9.69E-18
    378.40  9.17E-18
    378.60  8.16E-18
    378.70  1.05E-17
    378.80  1.10E-17
    379.00  1.01E-17
    383.10  9.57E-18
    384.30  8.96E-18
    384.60  8.02E-18
    384.80  6.07E-18
    384.90  1.27E-17
    385.20  1.10E-17
    385.90  1.02E-17
    398.30  9.81E-18
    401.00  9.18E-18
    401.60  8.33E-18
    401.90  7.00E-18
    402.20  6.67E-18
    402.50  1.31E-17
    402.90  1.20E-17
    403.20  1.14E-17
    404.50  1.08E-17
    418.00  1.06E-17
    418.20  1.03E-17
    418.30  9.55E-18
    418.40  1.05E-17
    418.70  1.10E-17
    418.80  9.94E-18
    418.90  9.93E-18
    419.00  1.06E-17
    419.50  1.10E-17
    419.60  9.97E-18
    419.70  9.94E-18
    419.90  1.05E-17
    420.00  1.07E-17
    420.60  1.11E-17
    420.80  1.16E-17
    420.90  8.85E-18
    421.00  9.86E-18
    421.30  1.05E-17
    421.40  1.07E-17
    422.50  1.11E-17
    422.80  1.17E-17
    422.90  8.91E-18
    423.00  9.62E-18
    423.30  1.03E-17
    425.80  1.12E-17
    426.40  1.18E-17
    426.50  9.03E-18
    426.70  9.65E-18
    427.10  1.03E-17
    432.50  1.13E-17
    433.80  1.24E-17
    433.90  1.18E-17
    434.00  9.98E-18
    434.10  8.80E-18
    434.20  8.83E-18
    434.60  9.69E-18
    435.40  1.04E-17
    449.00  1.16E-17
    454.10  1.28E-17
    454.50  1.21E-17
    454.90  1.03E-17
    455.20  9.02E-18
    455.60  8.95E-18
    456.80  9.90E-18
    460.60  1.09E-17
    577.80  1.43E-17
    644.50  1.76E-17
    657.00  1.66E-17
    674.30  1.21E-17
    685.70  1.00E-17
    698.50  9.24E-18
    782.20  9.92E-18
    879.24  9.38E-18
  0
***
