        89      0.00  16640.00 H-       H            2
 Lambda=500.00-16000.00A  Geltman, S. (1962)
    Ap. J. 136, 935
 Lambda=180.00-16640.00A  Broad, J. T. and Reinhardt W. R.
    (1976)
    Phys. Rev. A14, 2159

      1.00  2.00e-27
      5.20  6.11e-25
     10.00  5.60e-24
     15.51  2.40e-23
     19.96  5.53e-23
     24.62  8.38e-23
     29.13  1.92e-22
     34.47  3.32e-22
     40.77  5.72e-22
     44.36  7.50e-22
     50.32  1.13e-21
     54.74  1.47e-21
     59.52  1.93e-21
     64.74  2.52e-21
     70.45  3.29e-21
     73.45  3.76e-21
     76.63  4.29e-21
     79.89  4.90e-21
     83.32  5.59e-21
     86.89  6.38e-21
     90.63  7.28e-21
     94.50  8.31e-21
     98.56  9.47e-21
    102.80  1.08e-20
    107.30  1.23e-20
    111.80  1.40e-20
    116.60  1.60e-20
    121.70  1.82e-20
    126.90  2.07e-20
    132.30  2.36e-20
    138.00  2.69e-20
    143.90  3.06e-20
    150.10  3.47e-20
    156.50  3.95e-20
    163.30  4.49e-20
    170.30  5.10e-20
    177.60  5.80e-20
    180.00  6.69e-20
    196.00  8.80e-20
    214.00  1.17e-19
    236.00  1.55e-19
    264.00  2.06e-19
    298.00  2.82e-19
    343.00  4.13e-19
    404.00  7.02e-19
    491.00  1.24e-18
    500.00  1.50e-18
    626.00  2.32e-18
   1000.00  3.30e-18
   1210.00  5.43e-18
   1390.00  5.91e-18
   1500.00  5.70e-18
   1640.00  7.29e-18
   2000.00  9.01e-18
   2500.00  1.17e-17
   2570.00  1.31e-17
   3000.00  1.52e-17
   3500.00  1.89e-17
   3580.00  1.98e-17
   4000.00  2.23e-17
   4500.00  2.56e-17
   5000.00  2.84e-17
   5280.00  3.02e-17
   5500.00  3.11e-17
   6000.00  3.35e-17
   6500.00  3.55e-17
   6760.00  3.75e-17
   7000.00  3.70e-17
   7500.00  3.84e-17
   7940.00  3.95e-17
   8000.00  3.92e-17
   8500.00  3.95e-17
   9000.00  3.94e-17
   9620.00  3.99e-17
  10000.00  3.74e-17
  10500.00  3.59e-17
  11000.00  3.39e-17
  11500.00  3.14e-17
  12000.00  2.86e-17
  12190.00  2.81e-17
  12500.00  2.54e-17
  13000.00  2.19e-17
  13500.00  1.83e-17
  14000.00  1.45e-17
  14500.00  1.06e-17
  15000.00  7.11e-18
  15500.00  4.00e-18
  16000.00  1.69e-18
  16640.00  0.00e 00
  0
***
        76      0.00    911.75 H        Hi        1  2
 Cross section:
 Lambda=large  Stobbe, M. (1930)
    Ann. Physik 7, 661
 Lambda=Short  Sauter, F. (1931)
    Ann. Physik 9, 217 and Ann. Physik 11, 454
 Lambda=medium  Bethe, H. A. and Salpeter, E. E. (1957)
    Quantum Mechanics of One- and Two-Electron Atoms (Springer Verlag,
    Berlin, Goettingen, Heidelberg)
    (Interpolation method between short and long wavelength limits)
 Threshold:
 Lambda=911.75a  Moore, C. E. (1970)
    Ionization potentials and ionization limits derived from the
    the analyses of optical spectra:  NSRDS-NBS 34

      1.00  2.00e-27
      5.20  6.11e-25
     10.00  5.60e-24
     15.51  2.40e-23
     19.96  5.53e-23
     24.62  8.38e-23
     29.13  1.92e-22
     34.47  3.32e-22
     40.77  5.72e-22
     44.36  7.50e-22
     50.32  1.13e-21
     54.74  1.47e-21
     59.52  1.93e-21
     64.74  2.52e-21
     70.45  3.29e-21
     73.45  3.76e-21
     76.63  4.29e-21
     79.89  4.90e-21
     83.32  5.59e-21
     86.89  6.38e-21
     90.63  7.28e-21
     94.50  8.31e-21
     98.56  9.47e-21
    102.80  1.08e-20
    107.30  1.23e-20
    111.80  1.40e-20
    116.60  1.60e-20
    121.70  1.82e-20
    126.90  2.07e-20
    132.30  2.36e-20
    138.00  2.69e-20
    143.90  3.06e-20
    150.10  3.47e-20
    156.50  3.95e-20
    163.30  4.49e-20
    170.30  5.10e-20
    177.60  5.80e-20
    185.20  6.59e-20
    193.20  7.48e-20
    201.40  8.49e-20
    210.10  9.63e-20
    219.10  1.09e-19
    228.50  1.24e-19
    238.30  1.40e-19
    248.60  1.59e-19
    259.30  1.80e-19
    270.40  2.04e-19
    282.00  2.31e-19
    294.10  2.62e-19
    306.70  2.96e-19
    319.90  3.35e-19
    333.70  3.79e-19
    348.00  4.29e-19
    362.80  4.83e-19
    378.50  5.46e-19
    394.70  6.16e-19
    411.60  6.95e-19
    429.30  7.84e-19
    447.80  8.84e-19
    467.00  9.97e-19
    487.00  1.12e-18
    507.90  1.27e-18
    529.90  1.42e-18
    552.50  1.60e-18
    576.10  1.80e-18
    601.00  2.03e-18
    626.80  2.28e-18
    653.60  2.56e-18
    681.60  2.87e-18
    710.90  3.22e-18
    741.50  3.61e-18
    773.50  4.05e-18
    806.70  4.53e-18
    841.10  5.08e-18
    877.50  5.68e-18
    911.75  6.30e-18
  0
***
        84      0.00    504.27 he       hei          2
 lambda=0.00-504.27a  barfield et al

      0.61  1.47e-26
      1.24  1.61e-25
      2.44  1.54e-24
      4.21  9.67e-24
      5.20  1.96e-23
      6.15  3.45e-23
      7.91  8.00e-23
      9.76  1.60e-22
     12.05  3.18e-22
     12.57  3.65e-22
     13.69  4.78e-22
     15.51  7.15e-22
     17.59  1.06e-21
     19.96  1.58e-21
     22.64  2.33e-21
     24.62  3.01e-21
     26.78  3.88e-21
     29.13  4.98e-21
     31.69  6.39e-21
     34.47  8.18e-21
     35.95  9.24e-21
     37.49  1.04e-20
     39.10  1.18e-20
     40.77  1.33e-20
     42.53  1.50e-20
     44.36  1.69e-20
     46.26  1.90e-20
     48.24  2.14e-20
     50.32  2.41e-20
     52.47  2.71e-20
     54.74  3.04e-20
     57.08  3.42e-20
     59.52  3.84e-20
     62.09  4.31e-20
     64.74  4.83e-20
     67.53  5.41e-20
     70.45  6.06e-20
     73.45  6.79e-20
     76.63  7.60e-20
     79.89  8.51e-20
     83.32  9.51e-20
     86.89  1.06e-19
     90.63  1.19e-19
     94.50  1.33e-19
     98.56  1.48e-19
    102.80  1.66e-19
    107.30  1.85e-19
    111.80  2.06e-19
    116.60  2.30e-19
    121.70  2.57e-19
    126.90  2.86e-19
    132.30  3.19e-19
    138.00  3.56e-19
    143.90  3.96e-19
    150.10  4.42e-19
    156.50  4.92e-19
    163.30  5.48e-19
    170.30  6.11e-19
    177.60  6.80e-19
    185.20  7.57e-19
    193.20  8.43e-19
    201.40  9.39e-19
    210.10  1.05e-18
    219.10  1.16e-18
    228.50  1.30e-18
    238.30  1.44e-18
    248.57  1.61e-18
    259.30  1.79e-18
    270.40  1.99e-18
    282.00  2.21e-18
    294.10  2.46e-18
    306.70  2.74e-18
    319.90  3.05e-18
    333.70  3.39e-18
    348.00  3.77e-18
    362.80  4.20e-18
    378.50  4.66e-18
    394.70  5.18e-18
    411.60  5.76e-18
    429.30  6.40e-18
    447.80  7.10e-18
    467.00  7.88e-18
    487.00  8.74e-18
    504.27  9.70e-18
  0
***
       128      0.00   1101.07 c3p      ci        2  2
cross section:
lambda=110.00a-1101.07a  henry, r. j. w. (1970)
   astrophys. j. 161, 1153
lambda=0.00-110.00a  barfield, w. d., koontz, g. d., huebner, w. f. (1972)
   j. quant. spectrosc. radiat. transfer 12, 1409
threshold:
lambda=1101.07a  moore, c. e. (1970)
   ionization potentials and ionization limits derived from the
   analyses of optical spectra, nsrds-nbs 34

      1.00  2.00e-23
      5.00  3.00e-21
     10.00  2.30e-20
     15.00  7.40e-20
     20.00  1.70e-19
     25.00  3.00e-19
     30.00  4.80e-19
     35.00  7.20e-19
     37.00  8.30e-19
     39.00  9.50e-19
     41.00  1.00e-18
     43.00  4.30e-20
     44.00  4.50e-20
     45.00  4.80e-20
     46.00  5.20e-20
     47.00  5.50e-20
     48.00  6.20e-20
     50.00  6.70e-20
     55.00  8.20e-20
     60.00  1.00e-19
     65.00  1.20e-19
     70.00  1.40e-19
     75.00  1.70e-19
     80.00  1.90e-19
     85.00  2.20e-19
     90.00  2.40e-19
     95.00  2.80e-19
    100.00  3.20e-19
    110.00  3.75e-19
    120.00  4.43e-19
    130.00  5.17e-19
    140.00  5.95e-19
    150.00  6.79e-19
    160.00  7.67e-19
    170.00  8.59e-19
    180.00  9.57e-19
    190.00  1.06e-18
    200.00  1.16e-18
    210.00  1.27e-18
    220.00  1.39e-18
    230.00  1.51e-18
    240.00  1.63e-18
    250.00  1.75e-18
    260.00  1.88e-18
    270.00  2.01e-18
    280.00  2.15e-18
    290.00  2.29e-18
    300.00  2.43e-18
    310.00  2.57e-18
    320.00  2.72e-18
    330.00  2.87e-18
    340.00  3.02e-18
    350.00  3.18e-18
    360.00  3.33e-18
    370.00  3.49e-18
    380.00  3.65e-18
    390.00  3.82e-18
    400.00  3.98e-18
    410.00  4.15e-18
    420.00  4.31e-18
    430.00  4.48e-18
    440.00  4.65e-18
    450.00  4.82e-18
    460.00  5.00e-18
    470.00  5.17e-18
    480.00  5.34e-18
    490.00  5.52e-18
    500.00  5.69e-18
    510.00  5.87e-18
    520.00  6.04e-18
    530.00  6.22e-18
    540.00  6.39e-18
    550.00  6.57e-18
    560.00  6.74e-18
    570.00  6.91e-18
    580.00  7.09e-18
    590.00  7.26e-18
    600.00  7.43e-18
    610.00  7.60e-18
    620.00  7.77e-18
    630.00  7.94e-18
    640.00  8.11e-18
    650.00  8.28e-18
    660.00  8.44e-18
    670.00  8.60e-18
    680.00  8.77e-18
    690.00  8.92e-18
    700.00  9.08e-18
    710.00  9.24e-18
    720.00  9.39e-18
    730.00  9.54e-18
    740.00  9.69e-18
    750.00  9.83e-18
    760.00  9.97e-18
    770.00  1.01e-17
    780.00  1.02e-17
    790.00  1.04e-17
    800.00  1.05e-17
    810.00  1.06e-17
    820.00  1.08e-17
    830.00  1.09e-17
    840.00  1.10e-17
    850.00  1.11e-17
    860.00  1.12e-17
    870.00  1.13e-17
    880.00  1.14e-17
    890.00  1.15e-17
    900.00  1.16e-17
    910.00  1.17e-17
    920.00  1.18e-17
    930.00  1.18e-17
    940.00  1.19e-17
    950.00  1.20e-17
    960.00  1.20e-17
    970.00  1.21e-17
    980.00  1.21e-17
    990.00  1.22e-17
   1000.00  1.22e-17
   1010.00  1.22e-17
   1020.00  1.22e-17
   1030.00  1.23e-17
   1040.00  1.23e-17
   1050.00  1.23e-17
   1060.00  1.23e-17
   1070.00  1.23e-17
   1080.00  1.22e-17
   1090.00  1.22e-17
   1100.00  1.22e-17
  0
***
       142      0.00   1240.27 c1d      c1di      3  2
cross section:
lambda=120.00a-1240.27a  henry, r. j. w. (1970)
   astrophys. j. 161, 1153
lambda=0.00-120.00a  barfield, w. d., koontz, g. d., huebner, w. f. (1972)
   j. quant. spectrosc. radiat. transfer 12, 1409
threshold:
lambda=1240.27a  moore, c. e. (1970)
   ionization potentials and ionization limits derived from the
   analyses of optical spectra, nsrds-nbs 34

      1.00  2.00e-23
      5.00  3.00e-21
     10.00  2.30e-20
     15.00  7.40e-20
     20.00  1.70e-19
     25.00  3.00e-19
     30.00  4.80e-19
     35.00  7.20e-19
     37.00  8.30e-19
     39.00  9.50e-19
     41.00  1.00e-18
     43.00  4.30e-20
     44.00  4.50e-20
     45.00  4.80e-20
     46.00  5.20e-20
     47.00  5.50e-20
     48.00  6.20e-20
     50.00  6.70e-20
     55.00  8.20e-20
     60.00  1.00e-19
     65.00  1.20e-19
     70.00  1.40e-19
     75.00  1.70e-19
     80.00  2.30e-19
     85.00  3.00e-19
     90.00  3.70e-19
     95.00  4.20e-19
    100.00  4.80e-19
    110.00  6.00e-19
    120.00  7.50e-19
    130.00  9.00e-19
    140.00  1.00e-18
    150.00  1.11e-18
    160.00  1.22e-18
    170.00  1.33e-18
    180.00  1.44e-18
    190.00  1.55e-18
    200.00  1.67e-18
    210.00  1.78e-18
    220.00  1.90e-18
    230.00  2.02e-18
    240.00  2.14e-18
    250.00  2.26e-18
    260.00  2.39e-18
    270.00  2.51e-18
    280.00  2.64e-18
    290.00  2.76e-18
    300.00  2.89e-18
    310.00  3.01e-18
    320.00  3.14e-18
    330.00  3.27e-18
    340.00  3.40e-18
    350.00  3.53e-18
    360.00  3.66e-18
    370.00  3.79e-18
    380.00  3.91e-18
    390.00  4.04e-18
    400.00  4.17e-18
    410.00  4.30e-18
    420.00  4.43e-18
    430.00  4.56e-18
    440.00  4.69e-18
    450.00  4.82e-18
    460.00  4.95e-18
    470.00  5.07e-18
    480.00  5.20e-18
    490.00  5.33e-18
    500.00  5.45e-18
    510.00  5.58e-18
    520.00  5.70e-18
    530.00  5.83e-18
    540.00  5.95e-18
    550.00  6.07e-18
    560.00  6.19e-18
    570.00  6.31e-18
    580.00  6.43e-18
    590.00  6.55e-18
    600.00  6.67e-18
    610.00  6.78e-18
    620.00  6.90e-18
    630.00  7.01e-18
    640.00  7.12e-18
    650.00  7.24e-18
    660.00  7.35e-18
    670.00  7.45e-18
    680.00  7.56e-18
    690.00  7.67e-18
    700.00  7.77e-18
    710.00  7.87e-18
    720.00  7.98e-18
    730.00  8.08e-18
    740.00  8.17e-18
    750.00  8.27e-18
    760.00  8.36e-18
    770.00  8.46e-18
    780.00  8.55e-18
    790.00  8.64e-18
    800.00  8.73e-18
    810.00  8.81e-18
    820.00  8.89e-18
    830.00  8.98e-18
    840.00  9.06e-18
    850.00  9.13e-18
    860.00  9.21e-18
    870.00  9.28e-18
    880.00  9.36e-18
    890.00  9.43e-18
    900.00  9.49e-18
    910.00  9.56e-18
    920.00  9.62e-18
    930.00  9.68e-18
    940.00  9.74e-18
    950.00  9.80e-18
    960.00  9.85e-18
    970.00  9.90e-18
    980.00  9.95e-18
    990.00  1.00e-17
   1000.00  1.00e-17
   1010.00  1.01e-17
   1020.00  1.01e-17
   1030.00  1.02e-17
   1040.00  1.02e-17
   1050.00  1.02e-17
   1060.00  1.03e-17
   1070.00  1.03e-17
   1080.00  1.03e-17
   1090.00  1.03e-17
   1100.00  1.03e-17
   1110.00  1.04e-17
   1120.00  1.04e-17
   1130.00  1.04e-17
   1140.00  1.04e-17
   1150.00  1.04e-17
   1160.00  1.04e-17
   1170.00  1.04e-17
   1180.00  1.04e-17
   1190.00  1.04e-17
   1200.00  1.04e-17
   1210.00  1.04e-17
   1220.00  1.03e-17
   1230.00  1.03e-17
   1240.00  1.03e-17
  0
***
       162      0.00   1445.66 c1s      c1si      4  2
cross section:
lambda=140.00a-1445.66a  henry, r. j. w. (1970)
   astrophys. j. 161, 1153
lambda=0.00-140.00a  barfield, w. d., koontz, g. d., huebner, w. f. (1972)
   j. quant. spectrosc. radiat. transfer 12, 1409
threshold:
lambda=1445.66a  moore, c. e. (1970)
   ionization potentials and ionization limits derived from the
   analyses of optical spectra, nsrds-nbs 34

      1.00  2.00e-23
      5.00  3.00e-21
     10.00  2.30e-20
     15.00  7.40e-20
     20.00  1.70e-19
     25.00  3.00e-19
     30.00  4.80e-19
     35.00  7.20e-19
     37.00  8.30e-19
     39.00  9.50e-19
     41.00  1.00e-18
     43.00  4.30e-20
     44.00  4.50e-20
     45.00  4.80e-20
     46.00  5.20e-20
     47.00  5.50e-20
     48.00  6.20e-20
     50.00  6.70e-20
     55.00  8.20e-20
     60.00  1.00e-19
     65.00  1.20e-19
     70.00  1.40e-19
     75.00  1.70e-19
     80.00  2.00e-19
     85.00  2.30e-19
     90.00  2.60e-19
     95.00  2.95e-19
    100.00  3.40e-19
    110.00  4.40e-19
    120.00  5.70e-19
    130.00  7.00e-19
    140.00  8.50e-19
    150.00  9.50e-19
    160.00  1.10e-18
    170.00  1.24e-18
    180.00  1.34e-18
    190.00  1.45e-18
    200.00  1.56e-18
    210.00  1.67e-18
    220.00  1.78e-18
    230.00  1.89e-18
    240.00  2.00e-18
    250.00  2.12e-18
    260.00  2.23e-18
    270.00  2.35e-18
    280.00  2.47e-18
    290.00  2.59e-18
    300.00  2.70e-18
    310.00  2.82e-18
    320.00  2.95e-18
    330.00  3.07e-18
    340.00  3.19e-18
    350.00  3.31e-18
    360.00  3.43e-18
    370.00  3.55e-18
    380.00  3.68e-18
    390.00  3.80e-18
    400.00  3.92e-18
    410.00  4.05e-18
    420.00  4.17e-18
    430.00  4.29e-18
    440.00  4.41e-18
    450.00  4.54e-18
    460.00  4.66e-18
    470.00  4.78e-18
    480.00  4.90e-18
    490.00  5.02e-18
    500.00  5.14e-18
    510.00  5.26e-18
    520.00  5.38e-18
    530.00  5.50e-18
    540.00  5.62e-18
    550.00  5.74e-18
    560.00  5.86e-18
    570.00  5.97e-18
    580.00  6.09e-18
    590.00  6.20e-18
    600.00  6.32e-18
    610.00  6.43e-18
    620.00  6.54e-18
    630.00  6.65e-18
    640.00  6.76e-18
    650.00  6.87e-18
    660.00  6.98e-18
    670.00  7.09e-18
    680.00  7.19e-18
    690.00  7.30e-18
    700.00  7.40e-18
    710.00  7.50e-18
    720.00  7.61e-18
    730.00  7.70e-18
    740.00  7.80e-18
    750.00  7.90e-18
    760.00  7.99e-18
    770.00  8.09e-18
    780.00  8.18e-18
    790.00  8.27e-18
    800.00  8.36e-18
    810.00  8.45e-18
    820.00  8.53e-18
    830.00  8.62e-18
    840.00  8.70e-18
    850.00  8.78e-18
    860.00  8.86e-18
    870.00  8.94e-18
    880.00  9.01e-18
    890.00  9.09e-18
    900.00  9.16e-18
    910.00  9.23e-18
    920.00  9.30e-18
    930.00  9.36e-18
    940.00  9.43e-18
    950.00  9.49e-18
    960.00  9.55e-18
    970.00  9.61e-18
    980.00  9.67e-18
    990.00  9.72e-18
   1000.00  9.77e-18
   1010.00  9.82e-18
   1020.00  9.87e-18
   1030.00  9.92e-18
   1040.00  9.96e-18
   1050.00  1.00e-17
   1060.00  1.00e-17
   1070.00  1.01e-17
   1080.00  1.01e-17
   1090.00  1.01e-17
   1100.00  1.02e-17
   1110.00  1.02e-17
   1120.00  1.02e-17
   1130.00  1.02e-17
   1140.00  1.03e-17
   1150.00  1.03e-17
   1160.00  1.03e-17
   1170.00  1.03e-17
   1180.00  1.03e-17
   1190.00  1.03e-17
   1200.00  1.03e-17
   1210.00  1.03e-17
   1220.00  1.03e-17
   1230.00  1.03e-17
   1240.00  1.03e-17
   1250.00  1.03e-17
   1260.00  1.03e-17
   1270.00  1.03e-17
   1280.00  1.03e-17
   1290.00  1.03e-17
   1300.00  1.02e-17
   1310.00  1.02e-17
   1320.00  1.02e-17
   1330.00  1.02e-17
   1340.00  1.01e-17
   1350.00  1.01e-17
   1360.00  1.00e-17
   1370.00  1.00e-17
   1380.00  9.96e-18
   1390.00  9.91e-18
   1400.00  9.86e-18
   1410.00  9.80e-18
   1420.00  9.75e-18
   1430.00  9.69e-18
   1440.00  9.62e-18
  0
***
       105      0.00    853.06 n        ni        5  2
cross section:
lambda=110.00a-853.06a   henry, r. j. w. (1970)
   astrophys. j. 161, 1153
lambda=0.00-110.00a  barfield, w. d., koontz, g. d., huebner, w. f. (1972)
   j. quant. spectrosc. radiat. transfer 12, 1409
threshold:
lambda=853.06a  moore, c. e. (1970)
   ionization potentials and ionization limits derived from the
   analyses of optical spectra, nsrds-nbs 34

      1.00  4.00e-23
      5.00  5.70e-21
     10.00  4.20e-20
     12.00  7.10e-20
     14.00  1.20e-19
     15.00  1.40e-19
     16.00  1.60e-19
     17.00  1.80e-19
     18.00  2.10e-19
     19.00  2.40e-19
     20.00  2.80e-19
     21.00  3.10e-19
     22.00  3.50e-19
     24.30  4.30e-19
     26.00  5.40e-19
     28.00  6.50e-19
     30.00  7.20e-19
     31.00  3.40e-20
     35.00  4.60e-20
     40.00  6.30e-20
     45.00  8.50e-20
     50.00  1.10e-19
     60.00  1.70e-19
     70.00  2.40e-19
     80.00  3.40e-19
     90.00  4.60e-19
    100.00  5.89e-19
    110.00  7.34e-19
    120.00  8.64e-19
    130.00  1.00e-18
    140.00  1.15e-18
    150.00  1.31e-18
    160.00  1.47e-18
    170.00  1.65e-18
    180.00  1.83e-18
    190.00  2.01e-18
    200.00  2.21e-18
    210.00  2.41e-18
    220.00  2.61e-18
    230.00  2.82e-18
    240.00  3.04e-18
    250.00  3.26e-18
    260.00  3.49e-18
    270.00  3.71e-18
    280.00  3.95e-18
    290.00  4.18e-18
    300.00  4.42e-18
    310.00  4.66e-18
    320.00  4.91e-18
    330.00  5.15e-18
    340.00  5.40e-18
    350.00  5.65e-18
    360.00  5.90e-18
    370.00  6.15e-18
    380.00  6.40e-18
    390.00  6.65e-18
    400.00  6.89e-18
    410.00  7.14e-18
    420.00  7.39e-18
    430.00  7.63e-18
    440.00  7.87e-18
    450.00  8.11e-18
    460.00  8.35e-18
    470.00  8.58e-18
    480.00  8.81e-18
    490.00  9.04e-18
    500.00  9.26e-18
    510.00  9.48e-18
    520.00  9.69e-18
    530.00  9.90e-18
    540.00  1.01e-17
    550.00  1.03e-17
    560.00  1.05e-17
    570.00  1.07e-17
    580.00  1.08e-17
    590.00  1.10e-17
    600.00  1.12e-17
    610.00  1.13e-17
    620.00  1.14e-17
    630.00  1.16e-17
    640.00  1.17e-17
    650.00  1.18e-17
    660.00  1.19e-17
    670.00  1.20e-17
    680.00  1.21e-17
    690.00  1.22e-17
    700.00  1.22e-17
    710.00  1.23e-17
    720.00  1.23e-17
    730.00  1.23e-17
    740.00  1.23e-17
    750.00  1.23e-17
    760.00  1.23e-17
    770.00  1.23e-17
    780.00  1.22e-17
    790.00  1.22e-17
    800.00  1.21e-17
    810.00  1.20e-17
    820.00  1.19e-17
    825.92  1.18e-17
    825.93  1.18e-17
    830.00  1.18e-17
    840.00  1.16e-17
    850.00  1.15e-17
    853.06  1.15e-17
  0
***
        57      0.00    910.44 o3p      oi        6  2
cross section:
lambda=130.a-910.44a  henry, r. j. w. (1970)
   astrophys. j. 161, 1153
lambda=0.00-130.00a  barfield, w. d., koontz, g. d., huebner, w. f. (1972)
   j. quant. spectrosc. radiat. transfer 12, 1409
threshold:
lambda=910.44a  moore, c. e. (1970)
   ionization potentials and ionization limits derived from the
   analyses of optical spectra, nsrds-nbs 34

      1.00  7.00e-23
      5.00  1.00e-20
     10.00  6.80e-20
     12.00  1.10e-19
     14.00  1.70e-19
     15.00  2.00e-19
     16.00  2.30e-19
     17.00  2.80e-19
     18.00  3.20e-19
     19.00  3.60e-19
     20.00  4.30e-19
     21.00  4.70e-19
     22.00  5.40e-19
     22.50  5.60e-19
     23.50  2.90e-20
     24.00  3.10e-20
     25.00  3.40e-20
     26.00  3.80e-20
     28.00  4.60e-20
     30.00  5.40e-20
     35.00  7.80e-20
     40.00  1.10e-19
     45.00  1.40e-19
     50.00  1.80e-19
     55.00  2.30e-19
     60.00  2.90e-19
     65.00  3.70e-19
     70.00  4.50e-19
     75.00  5.50e-19
     80.00  6.50e-19
     85.00  8.00e-19
     90.00  9.50e-19
     95.00  1.10e-18
    100.00  1.25e-18
    110.00  1.60e-18
    120.00  2.00e-18
    130.00  2.40e-18
    150.00  3.20e-18
    200.00  4.60e-18
    250.00  5.85e-18
    300.00  7.00e-18
    350.00  8.00e-18
    400.00  8.90e-18
    450.00  9.55e-18
    500.00  1.00e-17
    550.00  1.03e-17
    600.00  1.03e-17
    650.00  9.95e-18
    667.00  9.75e-18
    668.00  7.50e-18
    700.00  7.30e-18
    734.00  7.00e-18
    735.00  3.15e-18
    747.00  3.15e-18
    800.00  3.10e-18
    850.00  3.05e-18
    910.40  2.94e-18
  0
***
        53      0.00    827.90 o1d      o1di      7  2
cross section:
lambda=130.a-827.9a  henry, r. j. w. (1970)
   astrophys. j. 161, 1153
lambda=0.00-130.00a  barfield, w. d., koontz, g. d., huebner, w. f. (1972)
   j. quant. spectrosc. radiat. transfer 12, 1409
threshold:
lambda=827.90a  moore, c. e. (1970)
   ionization potentials and ionization limits derived from the
   analyses of optical spectra, nsrds-nbs 34

      1.00  7.00e-23
      5.00  1.00e-20
     10.00  6.80e-20
     12.00  1.10e-19
     14.00  1.70e-19
     15.00  2.00e-19
     16.00  2.30e-19
     17.00  2.80e-19
     18.00  3.20e-19
     19.00  3.60e-19
     20.00  4.30e-19
     21.00  4.70e-19
     22.00  5.40e-19
     22.50  5.60e-19
     23.50  2.90e-20
     24.00  3.10e-20
     25.00  3.40e-20
     26.00  3.80e-20
     28.00  4.60e-20
     30.00  5.40e-20
     35.00  7.80e-20
     40.00  1.10e-19
     45.00  1.40e-19
     50.00  1.80e-19
     55.00  2.30e-19
     60.00  2.90e-19
     65.00  3.70e-19
     70.00  4.50e-19
     75.00  5.50e-19
     80.00  6.50e-19
     85.00  8.00e-19
     90.00  9.50e-19
     95.00  1.10e-18
    100.00  1.25e-18
    110.00  1.60e-18
    120.00  2.00e-18
    130.00  2.30e-18
    150.00  2.77e-18
    200.00  4.01e-18
    250.00  5.23e-18
    300.00  6.40e-18
    350.00  7.45e-18
    400.00  8.37e-18
    450.00  9.10e-18
    500.00  9.61e-18
    550.00  9.89e-18
    600.00  9.91e-18
    650.00  9.64e-18
    700.00  9.05e-18
    747.00  8.20e-18
    748.00  6.23e-18
    800.00  5.27e-18
    827.00  4.66e-18
  0
***
        53      0.00    858.30 o1s      o1si      8  2
cross section:
lambda=130.a-858.3a  henry, r. j. w. (1970)
   astrophys. j. 161, 1153
lambda=0.00-130.00a  barfield, w. d., koontz, g. d., huebner, w. f. (1972)
   j. quant. spectrosc. radiat. transfer 12, 1409
threshold:
lambda=858.30  moore, c. e. (1970)
   ionization potentials and ionization limits derived from the
   analyses of optical spectra, nsrds-nbs 34
   (ionization threshold)

      1.00  7.00e-23
      5.00  1.00e-20
     10.00  6.80e-20
     12.00  1.10e-19
     14.00  1.70e-19
     15.00  2.00e-19
     16.00  2.30e-19
     17.00  2.80e-19
     18.00  3.20e-19
     19.00  3.60e-19
     20.00  4.30e-19
     21.00  4.70e-19
     22.00  5.40e-19
     22.50  5.60e-19
     23.50  2.90e-20
     24.00  3.10e-20
     25.00  3.40e-20
     26.00  3.80e-20
     28.00  4.60e-20
     30.00  5.40e-20
     35.00  7.80e-20
     40.00  1.10e-19
     45.00  1.40e-19
     50.00  1.80e-19
     55.00  2.30e-19
     60.00  2.90e-19
     65.00  3.70e-19
     70.00  4.50e-19
     75.00  5.50e-19
     80.00  6.50e-19
     85.00  8.00e-19
     90.00  9.50e-19
     95.00  1.10e-18
    100.00  1.25e-18
    110.00  1.50e-18
    120.00  1.80e-18
    130.00  2.03e-18
    150.00  2.46e-18
    200.00  3.58e-18
    250.00  4.72e-18
    300.00  5.82e-18
    350.00  6.86e-18
    400.00  7.79e-18
    450.00  8.60e-18
    500.00  9.26e-18
    550.00  9.75e-18
    600.00  1.00e-17
    650.00  1.01e-17
    700.00  9.92e-18
    750.00  9.50e-18
    800.00  8.81e-18
    850.00  7.84e-18
    858.00  7.66e-18
  0
***
        37      0.00    759.44 f        fi           2
 cross section:
 lambda=.61-126.9a  barfield et al.
 lambda=130.19-759.44a  manson, s. t., msezane, a., starace, a. f., shahabi
    phys. rev. a 20, 1005 (1979)

      0.61  2.54e-23
      1.98  1.00e-21
      3.71  6.54e-21
      5.65  2.18e-20
      8.25  6.22e-20
     11.08  1.37e-19
     14.26  2.67e-19
     17.59  4.81e-19
     18.35  2.71e-20
     23.61  5.24e-20
     29.13  8.99e-20
     35.95  1.53e-19
     42.53  2.32e-19
     50.32  3.49e-19
     57.08  4.73e-19
     64.74  6.38e-19
     73.45  8.57e-19
     79.89  1.04e-18
     86.89  1.26e-18
     94.50  1.52e-18
    102.80  1.82e-18
    107.30  1.99e-18
    111.80  2.17e-18
    116.60  2.36e-18
    121.70  2.57e-18
    126.90  2.79e-18
    130.19  3.00e-18
    151.89  4.00e-18
    182.26  5.30e-18
    227.83  7.00e-18
    303.77  9.50e-18
    455.66  1.10e-17
    520.76  1.00e-17
    523.75  9.00e-18
    628.50  7.50e-18
    632.86  4.80e-18
    759.44  3.70e-18
  0
***
        71      0.00   2412.   nae      nai          2
 cross section:
 lambda=.58-333.7a  barfield et al.
 lambda=500.-575.a  hudson, r. d. and carter, v. l.
    j. opt. soc. am. 58, 430 (1968)
 lambda=600.-2412.a  hudson, r. d. and carter, v. l.
    j. opt. soc. am. 57, 651 (1967)

      0.58  5.40e-23
      1.10  3.87e-22
      2.06  2.60e-21
      3.41  1.13e-20
      5.20  3.66e-20
      7.91  1.13e-19
     11.08  2.67e-19
     11.56  1.95e-20
     13.11  2.74e-20
     18.35  6.75e-20
     24.62  1.46e-19
     31.69  2.78e-19
     40.77  5.19e-19
     50.32  8.59e-19
     62.09  1.40e-18
     76.63  2.22e-18
     94.50  3.41e-18
    111.80  4.70e-18
    132.30  6.17e-18
    156.50  7.30e-18
    170.30  7.68e-18
    177.60  7.59e-18
    185.20  7.74e-18
    210.10  7.87e-18
    238.30  7.36e-18
    270.40  6.11e-18
    306.70  4.31e-18
    319.30  3.67e-18
    333.70  5.00e-20
    500.00  1.90e-19
    525.00  2.20e-19
    550.00  2.30e-19
    575.00  2.40e-19
    600.00  2.30e-19
    650.00  2.34e-19
    700.00  2.30e-19
    750.00  2.19e-19
    800.00  2.07e-19
    850.00  1.95e-19
    900.00  1.93e-19
    950.00  1.92e-19
   1000.00  1.91e-19
   1050.00  1.89e-19
   1100.00  1.82e-19
   1150.00  1.75e-19
   1200.00  1.66e-19
   1250.00  1.55e-19
   1300.00  1.45e-19
   1350.00  1.34e-19
   1400.00  1.22e-19
   1450.00  1.10e-19
   1500.00  9.70e-20
   1550.00  8.50e-20
   1600.00  7.20e-20
   1650.00  5.70e-20
   1700.00  3.80e-20
   1750.00  1.90e-20
   1800.00  6.00e-21
   1850.00  1.00e-21
   1900.00  5.00e-22
   1950.00  1.00e-22
   2000.00  5.00e-22
   2050.00  1.00e-21
   2100.00  8.00e-21
   2150.00  2.20e-20
   2200.00  4.50e-20
   2250.00  7.00e-20
   2300.00  9.20e-20
   2350.00  1.10e-19
   2400.00  1.26e-19
   2412.00  1.30e-19
  0
***
        56      0.00   2412.00 na       nai          2
 cross section (theoretical):
 lambda=.58-333.7a  barfield et al.
 lambda=573.-2410.a  chang, j. and kelly, h. p. (1974)
    phys. rev. a 12, 92

      0.58  5.40e-23
      1.10  3.87e-22
      2.06  2.60e-21
      3.41  1.13e-20
      5.20  3.66e-20
      7.91  1.13e-19
     11.08  2.67e-19
     11.56  1.95e-20
     13.11  2.74e-20
     18.35  6.75e-20
     24.62  1.46e-19
     31.69  2.78e-19
     40.77  5.19e-19
     50.32  8.59e-19
     62.09  1.40e-18
     76.63  2.22e-18
     94.50  3.41e-18
    111.80  4.70e-18
    132.30  6.17e-18
    156.50  7.30e-18
    170.30  7.68e-18
    177.60  7.59e-18
    185.20  7.74e-18
    210.10  7.87e-18
    238.30  7.36e-18
    270.40  6.11e-18
    306.70  4.31e-18
    319.30  3.67e-18
    333.70  5.00e-20
    573.00  9.80e-20
    587.00  1.02e-19
    613.00  1.07e-19
    648.00  1.12e-19
    684.00  1.17e-19
    723.00  1.22e-19
    768.00  1.27e-19
    819.00  1.31e-19
    877.00  1.31e-19
    944.00  1.30e-19
    981.00  1.28e-19
   1000.00  1.24e-19
   1100.00  1.20e-19
   1200.00  1.16e-19
   1300.00  1.08e-19
   1400.00  9.10e-20
   1500.00  7.00e-20
   1600.00  5.00e-20
   1700.00  3.00e-20
   1800.00  1.00e-20
   1900.00  1.00e-21
   2000.00  1.00e-24
   2100.00  1.00e-24
   2200.00  1.00e-20
   2300.00  3.00e-20
   2400.00  5.70e-20
   2410.00  5.90e-20
  0
***
       119      0.00   1196.75 s3p      s3pi      9  2
 cross section:
 lambda=0.00-122.a  barfield, w. d., koontz, g. d., huebner, w. f. (1972)
    j. quant. spetrosc. radiat. transfer 12, 1409
 lambda=160.-1190.a  chapman, r. d. and henry, r. j. w. (1971)
    astrophys. j. 168, 169
 threshold:
 lambda=1196.75  moore c. e. (1970)
    ionization potentials and ionization limits derived from the
    analyses of optical spectra, nsrds-nbs 34

      0.61  3.13e-22
      1.24  2.65e-21
      2.44  1.79e-20
      4.98  1.18e-19
      5.20  1.20e-20
      6.15  1.91e-20
     12.57  1.31e-19
     24.62  7.33e-19
     50.32  3.48e-18
     52.47  3.31e-18
     62.09  4.41e-18
     67.53  5.19e-18
     70.45  2.45e-18
     73.45  2.33e-19
    121.67  5.02e-19
    160.00  7.62e-19
    170.00  9.07e-19
    180.00  1.07e-18
    190.00  1.25e-18
    200.00  1.44e-18
    210.00  1.66e-18
    220.00  1.89e-18
    230.00  2.14e-18
    240.00  2.41e-18
    250.00  2.70e-18
    260.00  3.01e-18
    270.00  3.34e-18
    280.00  3.70e-18
    290.00  4.07e-18
    300.00  4.46e-18
    310.00  4.87e-18
    320.00  5.31e-18
    330.00  5.76e-18
    340.00  6.24e-18
    350.00  6.74e-18
    360.00  7.26e-18
    370.00  7.79e-18
    380.00  8.35e-18
    390.00  8.93e-18
    400.00  9.53e-18
    410.00  1.01e-17
    420.00  1.08e-17
    430.00  1.14e-17
    440.00  1.21e-17
    450.00  1.28e-17
    460.00  1.35e-17
    470.00  1.42e-17
    480.00  1.50e-17
    490.00  1.57e-17
    500.00  1.65e-17
    510.00  1.73e-17
    520.00  1.81e-17
    530.00  1.89e-17
    540.00  1.97e-17
    550.00  2.05e-17
    560.00  2.13e-17
    570.00  2.22e-17
    580.00  2.30e-17
    590.00  2.39e-17
    600.00  2.47e-17
    610.00  2.56e-17
    620.00  2.64e-17
    630.00  2.73e-17
    640.00  2.82e-17
    650.00  2.90e-17
    660.00  2.99e-17
    670.00  3.07e-17
    680.00  3.16e-17
    690.00  3.24e-17
    700.00  3.32e-17
    710.00  3.40e-17
    720.00  3.48e-17
    730.00  3.56e-17
    740.00  3.64e-17
    750.00  3.71e-17
    760.00  3.78e-17
    770.00  3.86e-17
    780.00  3.92e-17
    790.00  3.99e-17
    800.00  4.05e-17
    810.00  4.11e-17
    820.00  4.17e-17
    830.00  4.22e-17
    840.00  4.27e-17
    850.00  4.32e-17
    860.00  4.36e-17
    870.00  4.40e-17
    880.00  4.43e-17
    890.00  4.46e-17
    900.00  4.49e-17
    910.00  4.51e-17
    920.00  4.52e-17
    930.00  3.26e-17
    940.00  3.26e-17
    950.00  3.26e-17
    960.00  3.25e-17
    970.00  3.24e-17
    980.00  3.23e-17
    990.00  3.21e-17
   1000.00  3.19e-17
   1010.00  3.17e-17
   1020.00  1.24e-17
   1030.00  1.23e-17
   1040.00  1.22e-17
   1050.00  1.21e-17
   1060.00  1.21e-17
   1070.00  1.20e-17
   1080.00  1.20e-17
   1090.00  1.19e-17
   1100.00  1.19e-17
   1110.00  1.19e-17
   1120.00  1.19e-17
   1130.00  1.19e-17
   1140.00  1.19e-17
   1150.00  1.20e-17
   1160.00  1.21e-17
   1170.00  1.22e-17
   1180.00  1.23e-17
   1190.00  1.25e-17
  0
***
       117      0.00   1121.43 s1d      s1di         2
 cross section:
 lambda=0.00-74.a  barfield, w. d., koontz, g. d., huebner, w. f. (1972)
    j. quant. spetrosc. radiat. transfer 12, 1409
 lambda=100.-1120.a  chapman, r. d. and henry, r. j. w. (1971)
    astrophys. j. 168, 169
 threshold:
 lambda=1121.43  moore c. e. (1970)
    ionization potentials and ionization limits derived from the
    analyses of optical spectra, nsrds-nbs 34

      0.61  3.13e-22
      1.24  2.65e-21
      2.44  1.79e-20
      4.98  1.18e-19
      5.20  1.20e-20
      6.15  1.91e-20
     12.57  1.31e-19
     24.62  7.33e-19
     50.32  3.48e-18
     52.47  3.31e-18
     62.09  4.41e-18
     67.53  5.19e-18
     70.45  2.45e-18
     73.45  1.78e-19
    100.00  6.77e-19
    110.00  8.13e-19
    120.00  9.64e-19
    130.00  1.13e-18
    140.00  1.31e-18
    150.00  1.50e-18
    160.00  1.70e-18
    170.00  1.92e-18
    180.00  2.16e-18
    190.00  2.41e-18
    200.00  2.67e-18
    210.00  2.95e-18
    220.00  3.24e-18
    230.00  3.55e-18
    240.00  3.87e-18
    250.00  4.20e-18
    260.00  4.55e-18
    270.00  4.91e-18
    280.00  5.29e-18
    290.00  5.68e-18
    300.00  6.08e-18
    310.00  6.49e-18
    320.00  6.92e-18
    330.00  7.36e-18
    340.00  7.82e-18
    350.00  8.28e-18
    360.00  8.76e-18
    370.00  9.24e-18
    380.00  9.74e-18
    390.00  1.02e-17
    400.00  1.08e-17
    410.00  1.13e-17
    420.00  1.18e-17
    430.00  1.24e-17
    440.00  1.29e-17
    450.00  1.35e-17
    460.00  1.41e-17
    470.00  1.46e-17
    480.00  1.52e-17
    490.00  1.58e-17
    500.00  1.64e-17
    510.00  1.70e-17
    520.00  1.76e-17
    530.00  1.82e-17
    540.00  1.88e-17
    550.00  1.94e-17
    560.00  2.00e-17
    570.00  2.06e-17
    580.00  2.12e-17
    590.00  2.18e-17
    600.00  2.24e-17
    610.00  2.30e-17
    620.00  2.35e-17
    630.00  2.41e-17
    640.00  2.47e-17
    650.00  2.53e-17
    660.00  2.58e-17
    670.00  2.64e-17
    680.00  2.69e-17
    690.00  2.75e-17
    700.00  2.80e-17
    710.00  2.85e-17
    720.00  2.90e-17
    730.00  2.95e-17
    740.00  3.00e-17
    750.00  3.04e-17
    760.00  3.08e-17
    770.00  3.13e-17
    780.00  3.17e-17
    790.00  3.20e-17
    800.00  3.24e-17
    810.00  3.27e-17
    820.00  3.30e-17
    830.00  3.33e-17
    840.00  3.35e-17
    850.00  3.38e-17
    860.00  3.40e-17
    870.00  3.41e-17
    880.00  3.43e-17
    890.00  3.44e-17
    900.00  3.44e-17
    910.00  3.45e-17
    920.00  3.45e-17
    930.00  3.44e-17
    940.00  3.43e-17
    950.00  3.42e-17
    960.00  3.40e-17
    970.00  3.38e-17
    980.00  3.36e-17
    990.00  3.33e-17
   1000.00  3.29e-17
   1010.00  3.25e-17
   1020.00  2.44e-17
   1030.00  2.42e-17
   1040.00  2.40e-17
   1050.00  2.37e-17
   1060.00  2.35e-17
   1070.00  2.31e-17
   1080.00  2.28e-17
   1090.00  2.24e-17
   1100.00  2.20e-17
   1110.00  2.15e-17
   1120.00  2.11e-17
  0
***
       112      0.00   1164.12 s1s      s1si         2
 cross section:
 lambda=0.00-122.a  barfield, w. d., koontz, g. d., huebner, w. f. (1972)
    j. quant. spetrosc. radiat. transfer 12, 1409
 lambda=200.-1160.a  chapman, r. d. and henry, r. j. w. (1971)
    astrophys. j. 168, 169
 threshold:
 lambda=1164.12  moore c. e. (1970)
    ionization potentials and ionization limits derived from the
    analyses of optical spectra, nsrds-nbs 34

      0.61  3.13e-22
      1.24  2.65e-21
      2.44  1.79e-20
      4.98  1.18e-19
      5.20  1.20e-20
      6.15  1.91e-20
     12.57  1.31e-19
     24.62  7.33e-19
     50.32  3.48e-18
     52.47  3.31e-18
     62.09  4.41e-18
     67.53  5.19e-18
     70.45  2.45e-18
     73.45  1.23e-19
    121.67  2.61e-19
    200.00  9.08e-19
    210.00  1.19e-18
    220.00  1.49e-18
    230.00  1.81e-18
    240.00  2.14e-18
    250.00  2.49e-18
    260.00  2.86e-18
    270.00  3.24e-18
    280.00  3.63e-18
    290.00  4.04e-18
    300.00  4.46e-18
    310.00  4.90e-18
    320.00  5.34e-18
    330.00  5.80e-18
    340.00  6.27e-18
    350.00  6.75e-18
    360.00  7.24e-18
    370.00  7.73e-18
    380.00  8.24e-18
    390.00  8.75e-18
    400.00  9.27e-18
    410.00  9.80e-18
    420.00  1.03e-17
    430.00  1.09e-17
    440.00  1.14e-17
    450.00  1.20e-17
    460.00  1.25e-17
    470.00  1.31e-17
    480.00  1.36e-17
    490.00  1.42e-17
    500.00  1.47e-17
    510.00  1.53e-17
    520.00  1.58e-17
    530.00  1.64e-17
    540.00  1.69e-17
    550.00  1.75e-17
    560.00  1.80e-17
    570.00  1.86e-17
    580.00  1.91e-17
    590.00  1.97e-17
    600.00  2.02e-17
    610.00  2.07e-17
    620.00  2.13e-17
    630.00  2.18e-17
    640.00  2.23e-17
    650.00  2.28e-17
    660.00  2.33e-17
    670.00  2.37e-17
    680.00  2.42e-17
    690.00  2.47e-17
    700.00  2.51e-17
    710.00  2.55e-17
    720.00  2.60e-17
    730.00  2.64e-17
    740.00  2.68e-17
    750.00  2.71e-17
    760.00  2.75e-17
    770.00  2.79e-17
    780.00  2.82e-17
    790.00  2.85e-17
    800.00  2.88e-17
    810.00  2.91e-17
    820.00  2.94e-17
    830.00  2.96e-17
    840.00  2.98e-17
    850.00  3.00e-17
    860.00  3.02e-17
    870.00  3.04e-17
    880.00  3.05e-17
    890.00  3.06e-17
    900.00  3.07e-17
    910.00  3.08e-17
    920.00  3.08e-17
    930.00  3.09e-17
    940.00  3.09e-17
    950.00  3.08e-17
    960.00  3.08e-17
    970.00  3.07e-17
    980.00  3.05e-17
    990.00  3.04e-17
   1000.00  3.02e-17
   1010.00  3.00e-17
   1020.00  2.98e-17
   1030.00  2.95e-17
   1040.00  2.92e-17
   1050.00  2.89e-17
   1060.00  2.85e-17
   1070.00  2.81e-17
   1080.00  2.77e-17
   1090.00  2.72e-17
   1100.00  2.67e-17
   1110.00  2.62e-17
   1120.00  2.56e-17
   1130.00  2.50e-17
   1140.00  2.43e-17
   1150.00  2.36e-17
   1160.00  2.29e-17
  0
***
        49      0.00    953.00 cl       cli          2
 cross section:
 lambda=.61-270.4a  barfield et al.
 lambda=275.5-950.1a  brown, e. r., carter, s. l., and kelly, h. p.
    phys. rev. a 21, 1237 (1980)
 threshold:  charlott moore

      0.61  4.03e-22
      1.19  2.97e-21
      1.82  9.86e-21
      2.77  3.12e-20
      4.21  9.38e-20
      4.39  9.87e-21
      6.41  2.80e-20
      8.26  5.56e-20
     10.62  1.09e-19
     13.67  2.12e-19
     17.59  4.05e-19
     22.64  7.56e-19
     25.68  1.02e-18
     29.13  1.37e-18
     33.05  1.81e-18
     37.49  2.37e-18
     42.53  3.06e-18
     44.36  2.94e-18
     50.32  3.66e-18
     57.08  4.49e-18
     59.52  3.24e-19
     67.53  4.06e-19
     76.63  5.02e-19
     86.89  6.11e-19
     98.56  7.31e-19
    111.80  8.55e-19
    126.90  9.72e-19
    143.90  1.07e-18
    163.30  1.12e-18
    185.20  1.13e-18
    210.10  1.08e-18
    238.30  9.81e-19
    270.36  8.36e-19
    275.50  8.80e-19
    310.00  2.83e-18
    354.20  7.87e-18
    387.50  1.30e-17
    413.30  1.74e-17
    459.20  2.42e-17
    495.90  2.85e-17
    539.10  3.21e-17
    584.80  3.43e-17
    619.90  3.54e-17
    688.80  3.47e-17
    746.00  3.59e-17
    746.10  3.75e-17
    858.00  3.80e-17
    858.10  2.20e-17
    950.10  1.80e-17
  0
***
        50      0.00   2856.   k        ki          26
 cross section:
 lambda=1.01-1128.19a  w.d. barfield
 lambda=1200.00-2856.00a  r.d. hudson and v.l. carter
    phys. rev. 139, a1426, (1965)

      1.01  2.83e-21
      1.35  6.58e-21
      2.06  2.12e-20
      3.14  6.47e-20
      3.41  8.03e-20
      3.56  9.14e-21
      4.78  2.07e-20
      7.28  6.48e-20
     11.08  1.96e-19
     16.87  5.65e-19
     25.68  1.54e-18
     39.10  3.53e-18
     40.77  3.87e-18
     42.53  3.41e-19
     59.52  6.17e-19
     90.63  1.09e-18
    137.99  1.54e-18
    210.11  1.17e-18
    259.30  1.09e-18
    319.88  4.02e-18
    447.76  7.31e-17
    467.00  7.95e-17
    487.00  7.12e-17
    507.93  4.08e-20
    741.54  6.38e-20
    915.00  9.00e-20
   1130.00  1.70e-19
   1200.00  2.00e-19
   1300.00  2.50e-19
   1400.00  2.80e-19
   1500.00  2.80e-19
   1600.00  2.60e-19
   1700.00  2.50e-19
   1800.00  2.18e-19
   1900.00  1.88e-19
   2000.00  1.57e-19
   2100.00  1.25e-19
   2200.00  9.20e-20
   2300.00  6.00e-20
   2350.00  4.50e-20
   2400.00  3.00e-20
   2450.00  1.80e-20
   2500.00  1.00e-20
   2550.00  5.00e-21
   2600.00  3.00e-21
   2650.00  2.00e-21
   2700.00  2.00e-21
   2750.00  3.00e-21
   2800.00  4.00e-21
   2856.00  1.00e-20
  0
***
